File: Fm2_10.txt
Time (s)	Load (N)	Extension (mm)	Deflection from Preload (mm)
0.0000
0.7497	-0.0019073	0.016608	-1.2996
1.499	0.0020006	0.066675	-1.2495
2.249	0.0080079	0.11693	-1.1993
2.999	0.014015	0.16707	-1.1491
3.749	0.024237	0.21731	-1.0989
4.498	0.032465	0.26749	-1.0487
5.248	0.040703	0.31758	-0.99864
5.998	0.051457	0.36785	-0.94838
6.747	0.063964	0.41788	-0.89834
7.497	0.080663	0.46814	-0.84808
8.247	0.094839	0.51842	-0.79781
8.997	0.10903	0.56835	-0.74787
9.746	0.12715	0.61865	-0.69757
10.50	0.14526	0.66878	-0.64744
11.25	0.16416	0.71914	-0.59708
12.00	0.18504	0.76920	-0.54702
12.75	0.20977	0.81936	-0.49687
13.49	0.23432	0.86947	-0.44675
14.24	0.25961	0.91971	-0.39651
14.99	0.28635	0.96992	-0.34630
15.74	0.31271	1.0201	-0.29615
16.49	0.34050	1.0702	-0.24600
17.24	0.37076	1.1205	-0.19573
17.99	0.40142	1.1705	-0.14569
18.74	0.43209	1.2210	-0.095262
19.49	0.46954	1.2710	-0.045183
20.24	0.50349	1.3213	0.0050563
20.99	0.53891	1.3712	0.054999
21.74	0.57698	1.4215	0.10524
22.49	0.62046	1.4716	0.15543
23.24	0.66041	1.5219	0.20572
23.99	0.70022	1.5719	0.25572
24.74	0.74264	1.6222	0.30596
25.49	0.78723	1.6723	0.35610
26.24	0.82998	1.7227	0.40649
26.99	0.87393	1.7727	0.45646
27.74	0.91786	1.8230	0.50680
28.49	0.96051	1.8731	0.55683
29.24	1.0020	1.9232	0.60702
29.99	1.0437	1.9734	0.65717
30.74	1.0844	2.0237	0.70747
31.49	1.1245	2.0738	0.75755
32.24	1.1593	2.1240	0.80776
32.99	1.1950	2.1742	0.85793
33.74	1.2308	2.2244	0.90813
34.49	1.2651	2.2745	0.95832
35.24	1.2977	2.3248	1.0086
35.99	1.3286	2.3749	1.0587
36.74	1.3589	2.4251	1.1089
37.49	1.3893	2.4753	1.1591
38.24	1.4178	2.5253	1.2091
38.98	1.4441	2.5755	1.2593
39.73	1.4715	2.6257	1.3094
40.48	1.4979	2.6759	1.3597
41.23	1.5236	2.7260	1.4098
41.98	1.5493	2.7763	1.4601
42.73	1.5724	2.8265	1.5103
43.48	1.5955	2.8767	1.5605
44.23	1.6177	2.9268	1.6106
44.98	1.6395	2.9769	1.6607
45.73	1.6592	3.0272	1.7110
46.48	1.6783	3.0773	1.7611
47.23	1.6985	3.1274	1.8112
47.98	1.7149	3.1776	1.8614
48.73	1.7328	3.2280	1.9118
49.48	1.7510	3.2781	1.9619
50.23	1.7678	3.3283	2.0121
50.98	1.7826	3.3784	2.0622
51.73	1.7980	3.4287	2.1125
52.48	1.8134	3.4787	2.1625
53.23	1.8287	3.5290	2.2128
53.98	1.8432	3.5791	2.2629
54.73	1.8573	3.6294	2.3132
55.48	1.8714	3.6795	2.3633
56.23	1.8854	3.7297	2.4135
56.98	1.8993	3.7798	2.4635
57.73	1.9126	3.8302	2.5139
58.48	1.9261	3.8802	2.5639
59.23	1.9399	3.9305	2.6143
59.98	1.9499	3.9805	2.6643
60.73	1.9600	4.0308	2.7146
61.48	1.9678	4.0809	2.7647
62.23	1.9763	4.1311	2.8149
62.98	1.9896	4.1812	2.8650
63.73	1.9988	4.2315	2.9153
64.48	2.0087	4.2815	2.9653
65.22	2.0196	4.3319	3.0157
65.97	2.0307	4.3819	3.0657
66.72	2.0419	4.4322	3.1160
67.47	2.0531	4.4823	3.1661
68.22	2.0643	4.5324	3.2161
68.97	2.0763	4.5827	3.2665
69.72	2.0857	4.6328	3.3166
70.47	2.0948	4.6830	3.3667
71.22	2.1035	4.7333	3.4171
71.97	2.1122	4.7834	3.4672
72.72	2.1229	4.8335	3.5173
73.47	2.1329	4.8837	3.5675
74.22	2.1423	4.9338	3.6176
74.97	2.1509	4.9840	3.6678
75.72	2.1603	5.0342	3.7180
76.47	2.1695	5.0844	3.7681
77.22	2.1791	5.1346	3.8184
77.97	2.1872	5.1848	3.8685
78.72	2.1959	5.2349	3.9187
79.47	2.2046	5.2852	3.9690
80.22	2.2133	5.3352	4.0190
80.97	2.2220	5.3854	4.0692
81.72	2.2280	5.4356	4.1194
82.47	2.2366	5.4858	4.1696
83.22	2.2457	5.5360	4.2198
83.97	2.2549	5.5861	4.2699
84.72	2.2640	5.6365	4.3202
85.47	2.2728	5.6866	4.3704
86.22	2.2820	5.7367	4.4205
86.97	2.2919	5.7870	4.4708
87.72	2.3017	5.8372	4.5210
88.47	2.3118	5.8873	4.5710
89.22	2.3249	5.9376	4.6213
89.97	2.3343	5.9876	4.6714
90.71	2.3437	6.0377	4.7215
91.46	2.3530	6.0880	4.7717
92.21	2.3622	6.1382	4.8220
92.96	2.3715	6.1883	4.8721
93.71	2.3798	6.2384	4.9222
94.46	2.3835	6.2886	4.9723
95.21	2.3906	6.3389	5.0227
95.96	2.3995	6.3891	5.0729
96.71	2.4098	6.4391	5.1229
97.46	2.4183	6.4894	5.1732
98.21	2.4217	6.5396	5.2234
98.96	2.4317	6.5896	5.2734
99.71	2.4416	6.6399	5.3237
100.5	2.4474	6.6901	5.3738
101.2	2.4572	6.7402	5.4240
102.0	2.4666	6.7905	5.4742
102.7	2.4752	6.8407	5.5245
103.5	2.4839	6.8908	5.5746
104.2	2.4890	6.9409	5.6247
105.0	2.4879	6.9912	5.6749
105.7	2.4867	7.0412	5.7250
106.5	2.4855	7.0914	5.7752
107.2	2.4859	7.1417	5.8255
108.0	2.4915	7.1919	5.8757
108.7	2.4981	7.2421	5.9259
109.5	2.5073	7.2923	5.9761
110.2	2.5160	7.3423	6.0261
111.0	2.5252	7.3926	6.0764
111.7	2.5359	7.4428	6.1266
112.5	2.5454	7.4929	6.1767
113.2	2.5549	7.5430	6.2268
114.0	2.5691	7.5932	6.2770
114.7	2.5824	7.6433	6.3271
115.5	2.5949	7.6936	6.3774
116.2	2.6069	7.7438	6.4275
117.0	2.6177	7.7939	6.4777
117.7	2.6302	7.8442	6.5280
118.5	2.6415	7.8943	6.5780
119.2	2.6528	7.9446	6.6284
120.0	2.6620	7.9948	6.6785
120.7	2.6703	8.0447	6.7285
121.5	2.6746	8.0950	6.7788
122.2	2.6819	8.1453	6.8291
123.0	2.6900	8.1954	6.8792
123.7	2.6959	8.2455	6.9293
124.5	2.7043	8.2959	6.9796
125.2	2.7134	8.3459	7.0297
126.0	2.7222	8.3962	7.0800
126.7	2.7310	8.4462	7.1299
127.5	2.7404	8.4965	7.1803
128.2	2.7492	8.5467	7.2305
129.0	2.7570	8.5969	7.2807
129.7	2.7648	8.6469	7.3306
130.4	2.7725	8.6972	7.3809
131.2	2.7803	8.7473	7.4311
131.9	2.7881	8.7975	7.4813
132.7	2.7981	8.8476	7.5314
133.4	2.8043	8.8978	7.5816
134.2	2.8099	8.9481	7.6319
134.9	2.8188	8.9983	7.6821
135.7	2.8278	9.0483	7.7321
136.4	2.8367	9.0986	7.7823
137.2	2.8456	9.1488	7.8326
137.9	2.8546	9.1990	7.8828
138.7	2.8624	9.2491	7.9328
139.4	2.8694	9.2993	7.9830
140.2	2.8777	9.3495	8.0333
140.9	2.8864	9.3997	8.0835
141.7	2.8950	9.4498	8.1335
142.4	2.9078	9.5000	8.1838
143.2	2.9166	9.5501	8.2339
143.9	2.9254	9.6004	8.2842
144.7	2.9345	9.6505	8.3343
145.4	2.9437	9.7007	8.3845
146.2	2.9530	9.7508	8.4346
146.9	2.9617	9.8010	8.4848
147.7	2.9705	9.8512	8.5350
148.4	2.9771	9.9014	8.5851
149.2		9.9516	8.6353