File: Fm2_14.txt
Time (s)	Load (N)	Extension (mm)	Deflection from Preload (mm)
0.0000
0.5277	0.0019073	0.0012936	-0.46465
1.055	0.020375	0.036306	-0.42964
1.583	0.047330	0.071751	-0.39420
2.111	0.078586	0.10701	-0.35893
2.639	0.11270	0.14240	-0.32354
3.166	0.14880	0.17761	-0.28834
3.694	0.19184	0.21306	-0.25289
4.222	0.23334	0.24829	-0.21765
4.750	0.27541	0.28359	-0.18235
5.277	0.31747	0.31892	-0.14703
5.805	0.36048	0.35420	-0.11175
6.333	0.40464	0.38957	-0.076382
6.860	0.44884	0.42496	-0.040983
7.388	0.49339	0.46015	-0.0058024
7.916	0.53486	0.49549	0.029543
8.444	0.57817	0.53082	0.064874
8.971	0.62015	0.56618	0.10023
9.499	0.66138	0.60157	0.13562
10.03	0.69836	0.63684	0.17089
10.55	0.74188	0.67201	0.20606
11.08	0.78281	0.70738	0.24143
11.61	0.82130	0.74277	0.27683
12.14	0.85937	0.77828	0.31233
12.67	0.89652	0.81346	0.34751
13.19	0.93265	0.84876	0.38281
13.72	0.96900	0.88400	0.41805
14.25	1.0055	0.91940	0.45345
14.78	1.0408	0.95476	0.48881
15.30	1.0759	0.99008	0.52413
15.83	1.1109	1.0254	0.55945
16.36	1.1458	1.0607	0.59473
16.89	1.1770	1.0961	0.63010
17.41	1.2114	1.1312	0.66530
17.94	1.2453	1.1666	0.70066
18.47	1.2795	1.2019	0.73596
19.00	1.3140	1.2371	0.77119
19.53	1.3468	1.2726	0.80666
20.05	1.3793	1.3080	0.84201
20.58	1.4099	1.3432	0.87726
21.11	1.4431	1.3785	0.91260
21.64	1.4764	1.4138	0.94783
22.16	1.5080	1.4492	0.98328
22.69	1.5396	1.4846	1.0186
23.22	1.5714	1.5199	1.0539
23.75	1.6048	1.5550	1.0891
24.28	1.6381	1.5906	1.1246
24.80	1.6714	1.6257	1.1598
25.33	1.7012	1.6611	1.1952
25.86	1.7370	1.6963	1.2304
26.39	1.7691	1.7318	1.2659
26.91	1.8018	1.7670	1.3011
27.44	1.8351	1.8023	1.3363
27.97	1.8670	1.8376	1.3717
28.50	1.8989	1.8731	1.4071
29.02	1.9308	1.9084	1.4424
29.55	1.9629	1.9436	1.4776
30.08	1.9953	1.9790	1.5130
30.61	2.0277	2.0142	1.5483
31.14	2.0601	2.0496	1.5836
31.66	2.0943	2.0850	1.6190
32.19	2.1284	2.1203	1.6544
32.72	2.1611	2.1556	1.6897
33.25	2.1939	2.1909	1.7250
33.77	2.2270	2.2261	1.7602
34.30	2.2602	2.2616	1.7956
34.83	2.2933	2.2969	1.8309
35.36	2.3265	2.3321	1.8661
35.89	2.3591	2.3674	1.9015
36.41	2.3912	2.4029	1.9369
36.94	2.4238	2.4382	1.9723
37.47	2.4568	2.4734	2.0074
38.00	2.4898	2.5088	2.0429
38.52	2.5221	2.5440	2.0780
39.05	2.5550	2.5794	2.1134
39.58	2.5878	2.6147	2.1488
40.11	2.6218	2.6499	2.1840
40.63	2.6547	2.6854	2.2194
41.16	2.6849	2.7206	2.2547
41.69	2.7166	2.7561	2.2901
42.22	2.7498	2.7914	2.3254
42.75	2.7839	2.8266	2.3607
43.27	2.8162	2.8619	2.3959
43.80	2.8463	2.8972	2.4313
44.33	2.8762	2.9326	2.4666
44.86	2.9073	2.9680	2.5021
45.38	2.9421	3.0032	2.5373
45.91	2.9759	3.0385	2.5725
46.44	3.0071	3.0738	2.6079
46.97	3.0383	3.1092	2.6432
47.50	3.0698	3.1446	2.6786
48.02	3.1022	3.1799	2.7139
48.55	3.1303	3.2151	2.7492
49.08	3.1622	3.2504	2.7845
49.61	3.1961	3.2858	2.8199
50.13	3.2264	3.3212	2.8553
50.66	3.2573	3.3565	2.8906
51.19	3.2882	3.3918	2.9259
51.72	3.3195	3.4271	2.9612
52.24	3.3517	3.4624	2.9965
52.77	3.3845	3.4976	3.0317
53.30	3.4170	3.5330	3.0670
53.83	3.4443	3.5684	3.1024
54.36	3.4726	3.6036	3.1377
54.88	3.5037	3.6389	3.1730
55.41	3.5345	3.6744	3.2084
55.94	3.5633	3.7097	3.2438
56.47	3.5911	3.7449	3.2790
56.99	3.6189	3.7802	3.3142
57.52	3.6465	3.8157	3.3497
58.05	3.6723	3.8510	3.3851
58.58	3.6982	3.8862	3.4203
59.11	3.7249	3.9216	3.4556
59.63	3.7505	3.9569	3.4910
60.16	3.7761	3.9922	3.5262
60.69	3.8008	4.0276	3.5616
61.22	3.8236	4.0628	3.5969
61.74	3.8464	4.0982	3.6323
62.27	3.8690	4.1335	3.6675
62.80	3.8917	4.1688	3.7029
63.33	3.9088	4.2041	3.7382
63.85	3.9283	4.2394	3.7734
64.38	3.9471	4.2748	3.8088
64.91	3.9657	4.3101	3.8442
65.44	3.9834	4.3453	3.8794
65.97	3.9991	4.3807	3.9148
66.49	4.0127	4.4160	3.9500
67.02	4.0251	4.4512	3.9853
67.55	4.0415	4.4867	4.0207
68.08	4.0578	4.5220	4.0560
68.60	4.0742	4.5575	4.0915
69.13	4.0885	4.5926	4.1267
69.66	4.1018	4.6280	4.1620
70.19	4.1153	4.6632	4.1972
70.72	4.1311	4.6986	4.2326
71.24	4.1461	4.7340	4.2681
71.77	4.1595	4.7693	4.3033
72.30	4.1729	4.8046	4.3386
72.83	4.1863	4.8398	4.3738
73.35	4.1990	4.8752	4.4092
73.88	4.2116	4.9106	4.4446
74.41	4.2243	4.9458	4.4799
74.94	4.2381	4.9811	4.5151
75.46	4.2526	5.0165	4.5506
75.99	4.2659	5.0518	4.5859
76.52	4.2790	5.0871	4.6211
77.05	4.2923	5.1223	4.6563
77.58	4.3062	5.1577	4.6918
78.10	4.3202	5.1930	4.7271
78.63	4.3341	5.2284	4.7624
79.16	4.3463	5.2638	4.7979
79.69	4.3572	5.2990	4.8331
80.21	4.3718	5.3344	4.8685
80.74	4.3865	5.3696	4.9036
81.27	4.4003	5.4051	4.9391
81.80	4.4122	5.4404	4.9744
82.33	4.4250	5.4755	5.0096
82.85	4.4382	5.5109	5.0450
83.38	4.4522	5.5464	5.0804
83.91	4.4661	5.5817	5.1157
84.44	4.4801	5.6170	5.1510
84.96	4.4941	5.6522	5.1862
85.49	4.5080	5.6876	5.2217
86.02	4.5220	5.7229	5.2569
86.55	4.5359	5.7581	5.2922
87.07	4.5499	5.7935	5.3276
87.60	4.5647	5.8288	5.3628
88.13	4.5796	5.8642	5.3982
88.66	4.5945	5.8995	5.4336
89.19	4.6097	5.9349	5.4689
89.71	4.6244	5.9700	5.5041
90.24	4.6376	6.0055	5.5395
90.77	4.6507	6.0408	5.5749
91.30	4.6637	6.0760	5.6100
91.82	4.6766	6.1115	5.6455
92.35	4.6894	6.1467	5.6807
92.88	4.7032	6.1819	5.7160
93.41	4.7190	6.2173	5.7513
93.94	4.7349	6.2527	5.7867
94.46	4.7496	6.2879	5.8220
94.99	4.7629	6.3233	5.8574
95.52	4.7806	6.3585	5.8926
96.05	4.7982	6.3939	5.9280
96.57	4.8146	6.4292	5.9632
97.10	4.8286	6.4645	5.9986
97.63	4.8426	6.4998	6.0338
98.16	4.8566	6.5352	6.0693
98.68	4.8734	6.5706	6.1047
99.21	4.8901	6.6058	6.1398
99.74	4.9058	6.6411	6.1752
100.3	4.9214	6.6765	6.2106
100.8	4.9373	6.7118	6.2458
101.3	4.9528	6.7472	6.2812
101.9	4.9675	6.7825	6.3166
102.4	4.9823	6.8178	6.3519
102.9	4.9971	6.8532	6.3873
103.4	5.0119	6.8885	6.4225
104.0	5.0279	6.9237	6.4577
104.5	5.0406	6.9590	6.4931
105.0		6.9943	6.5284