File: Fm2_22.txt
Time (s)	Load (N)	Extension (mm)	Deflection from Preload (mm)
0.0000
0.8433	0.0012724	0.022758	-0.69614
1.687	0.019414	0.079335	-0.63956
2.530	0.037863	0.13577	-0.58313
3.373	0.058483	0.19222	-0.52668
4.217	0.083426	0.24846	-0.47043
5.060	0.11372	0.30499	-0.41390
5.903	0.15263	0.36145	-0.35745
6.747	0.19348	0.41792	-0.30098
7.590	0.24074	0.47443	-0.24447
8.433	0.29687	0.53082	-0.18808
9.277	0.35379	0.58721	-0.13169
10.12	0.41406	0.64368	-0.075223
10.96	0.47733	0.70015	-0.018753
11.81	0.54589	0.75656	0.037658
12.65	0.61547	0.81294	0.094039
13.49	0.68789	0.86952	0.15062
14.34	0.76097	0.92592	0.20702
15.18	0.83251	0.98232	0.26342
16.02	0.90435	1.0387	0.31983
16.87	0.97802	1.0953	0.37640
17.71	1.0513	1.1517	0.43280
18.55	1.1224	1.2082	0.48931
19.40	1.1879	1.2646	0.54573
20.24	1.2447	1.3210	0.60212
21.08	1.3066	1.3774	0.65852
21.93	1.3683	1.4340	0.71506
22.77	1.4272	1.4904	0.77147
23.61	1.4567	1.5468	0.82788
24.46	1.5127	1.6033	0.88444
25.30	1.5663	1.6597	0.94081
26.14	1.6151	1.7161	0.99719
26.99	1.6576	1.7727	1.0538
27.83	1.6941	1.8291	1.1102
28.67	1.7239	1.8855	1.1666
29.52	1.7602	1.9420	1.2231
30.36	1.7951	1.9985	1.2796
31.20	1.8261	2.0548	1.3359
32.05	1.8455	2.1113	1.3924
32.89	1.8632	2.1678	1.4489
33.73	1.8913	2.2241	1.5052
34.58	1.9195	2.2806	1.5617
35.42	1.9437	2.3370	1.6181
36.26	1.9665	2.3935	1.6746
37.11	1.9873	2.4498	1.7309
37.95	2.0043	2.5064	1.7875
38.79	2.0226	2.5628	1.8439
39.64	2.0397	2.6191	1.9002
40.48	2.0561	2.6757	1.9568
41.32	2.0741	2.7321	2.0132
42.17	2.0869	2.7886	2.0697
43.01	2.0983	2.8450	2.1261
43.85	2.1109	2.9014	2.1825
44.70	2.1243	2.9579	2.2390
45.54	2.1376	3.0144	2.2955
46.38	2.1500	3.0707	2.3518
47.23	2.1617	3.1272	2.4083
48.07	2.1702	3.1837	2.4648
48.91	2.1789	3.2402	2.5213
49.76	2.1922	3.2965	2.5776
50.60	2.2054	3.3531	2.6342
51.44	2.2187	3.4094	2.6905
52.29	2.2319	3.4659	2.7470
53.13	2.2447	3.5223	2.8034
53.97	2.2516	3.5788	2.8599
54.82	2.2640	3.6351	2.9162
55.66	2.2745	3.6918	2.9729
56.50	2.2830	3.7482	3.0293
57.35	2.2934	3.8046	3.0857
58.19	2.3022	3.8609	3.1421
59.03	2.3081	3.9175	3.1986
59.88	2.3197	3.9740	3.2551
60.72	2.3311	4.0304	3.3115
61.56	2.3424	4.0867	3.3678
62.41	2.3579	4.1433	3.4244
63.25	2.3697	4.1997	3.4808
64.09	2.3815	4.2561	3.5372
64.94	2.3932	4.3125	3.5936
65.78	2.3970	4.3689	3.6500
66.62	2.4038	4.4253	3.7064
67.47	2.4123	4.4820	3.7631
68.31	2.4220	4.5382	3.8193
69.15	2.4312	4.5948	3.8759
70.00	2.4364	4.6512	3.9323
70.84	2.4424	4.7076	3.9887
71.68	2.4488	4.7641	4.0452
72.53	2.4454	4.8204	4.1015
73.37	2.4236	4.8769	4.1580
74.21	2.4239	4.9334	4.2145
75.06	2.4353	4.9899	4.2710
75.90	2.4497	5.0463	4.3274
76.74	2.4641	5.1027	4.3838
77.59	2.4785	5.1592	4.4403
78.43	2.4922	5.2156	4.4967
79.27	2.5038	5.2720	4.5531
80.12	2.5132	5.3286	4.6097
80.96	2.5242	5.3850	4.6661
81.80	2.5337	5.4415	4.7226
82.65	2.5412	5.4979	4.7790
83.49	2.5493	5.5544	4.8355
84.33	2.5575	5.6106	4.8917
85.18	2.5657	5.6672	4.9483
86.02	2.5759	5.7237	5.0048
86.86	2.5820	5.7800	5.0611
87.71	2.5844	5.8367	5.1178
88.55	2.5871	5.8930	5.1741
89.39	2.5926	5.9494	5.2305
90.24	2.6000	6.0059	5.2870
91.08	2.6114	6.0623	5.3434
91.92	2.6251	6.1189	5.4000
92.77	2.6350	6.1751	5.4562
93.61	2.6450	6.2316	5.5127
94.45	2.6560	6.2880	5.5692
95.30	2.6675	6.3445	5.6256
96.14	2.6787	6.4010	5.6821
96.98	2.6899	6.4574	5.7385
97.83	2.7012	6.5139	5.7950
98.67	2.7143	6.5703	5.8514
99.52	2.7275	6.6267	5.9078
100.4	2.7392	6.6832	5.9643
101.2	2.7509	6.7397	6.0208
102.0	2.7653	6.7962	6.0773
102.9	2.7756	6.8525	6.1336
103.7	2.7856	6.9089	6.1900
104.6	2.7951	6.9654	6.2465
105.4	2.8045	7.0219	6.3030
106.3	2.8141	7.0783	6.3594
107.1	2.8237	7.1348	6.4159
107.9	2.8345	7.1911	6.4722
108.8	2.8465	7.2476	6.5287
109.6	2.8625	7.3041	6.5852
110.5	2.8733	7.3604	6.6415
111.3	2.8850	7.4170	6.6981
112.2	2.8954	7.4734	6.7545
113.0	2.9058	7.5298	6.8109
113.9	2.9162	7.5862	6.8673
114.7	2.9270	7.6428	6.9239
115.5	2.9377	7.6992	6.9803
116.4	2.9494	7.7556	7.0367
117.2	2.9618	7.8120	7.0932
118.1	2.9739	7.8684	7.1495
118.9	2.9859	7.9249	7.2060
119.8	2.9980	7.9814	7.2625
120.6	3.0096	8.0378	7.3189
121.4	3.0205	8.0944	7.3755
122.3	3.0314	8.1507	7.4318
123.1	3.0422	8.2072	7.4883
124.0	3.0532	8.2636	7.5447
124.8	3.0646	8.3200	7.6011
125.7	3.0761	8.3764	7.6575
126.5	3.0875	8.4330	7.7141
127.3	3.0998	8.4893	7.7704
128.2	3.1133	8.5458	7.8269
129.0	3.1246	8.6024	7.8835
129.9	3.1359	8.6587	7.9398
130.7	3.1485	8.7152	7.9963
131.6	3.1555	8.7716	8.0527
132.4	3.1696	8.8280	8.1091
133.2	3.1836	8.8846	8.1657
134.1	3.1952	8.9410	8.2221
134.9	3.2056	8.9973	8.2784
135.8	3.2161	9.0538	8.3349
136.6	3.2289	9.1103	8.3914
137.5	3.2421	9.1667	8.4478
138.3	3.2539	9.2231	8.5042
139.2	3.2684	9.2795	8.5606
140.0	3.2820	9.3361	8.6172
140.8	3.2957	9.3925	8.6736
141.7	3.3090	9.4488	8.7299
142.5	3.3221	9.5053	8.7864
143.4	3.3352	9.5619	8.8430
144.2	3.3471	9.6182	8.8993
145.1	3.3596	9.6747	8.9558
145.9	3.3696	9.7311	9.0122
146.7	3.3825	9.7877	9.0688
147.6	3.3955	9.8440	9.1251
148.4	3.4084	9.9005	9.1816
149.3	3.4208	9.9570	9.2381
150.1	3.4335	10.013	9.2946
151.0	3.4446	10.070	9.3509
151.8	3.4525	10.126	9.4073
152.6	3.4609	10.183	9.4638
153.5	3.4758	10.239	9.5203
154.3	3.4888	10.296	9.5766
155.2	3.5032	10.352	9.6331
156.0	3.5187	10.408	9.6895
156.9	3.5343	10.465	9.7460
157.7	3.5502	10.521	9.8025
158.5	3.5650	10.578	9.8588
159.4	3.5791	10.634	9.9153
160.2	3.5965	10.691	9.9718
161.1	3.6090	10.747	10.028
161.9	3.6216	10.804	10.085
162.8	3.6379	10.860	10.141
163.6	3.6521	10.916	10.198
164.5	3.6670	10.973	10.254
165.3	3.6819	11.029	10.310
166.1	3.6965	11.086	10.367
167.0	3.7110	11.142	10.423
167.8	0.37575