File: Fm2_32.txt
Time (s)	Load (N)	Extension (mm)	Deflection from Preload (mm)
0.0000
1.026	0.015391	0.035078	-0.43133
2.052	0.062658	0.10386	-0.36255
3.078	0.10552	0.17240	-0.29401
4.105	0.17050	0.24120	-0.22521
5.131	0.25261	0.30976	-0.15665
6.157	0.35123	0.37860	-0.087815
7.183	0.46558	0.44718	-0.019231
8.209	0.59136	0.51588	0.049467
9.235	0.73226	0.58444	0.11803
10.26	0.87354	0.65325	0.18684
11.29	1.0257	0.72193	0.25552
12.31	1.1761	0.79044	0.32403
13.34	1.3261	0.85927	0.39286
14.37	1.4722	0.92797	0.46156
15.39	1.6123	0.99659	0.53018
16.42	1.7472	1.0652	0.59878
17.44	1.8762	1.1340	0.66761
18.47	1.9703	1.2026	0.73620
19.50	2.0337	1.2712	0.80479
20.52	2.0931	1.3399	0.87346
21.55	2.1932	1.4087	0.94233
22.58	2.2978	1.4772	1.0108
23.60	2.3997	1.5459	1.0795
24.63	2.4977	1.6147	1.1483
25.65	2.5874	1.6834	1.2170
26.68	2.6795	1.7521	1.2857
27.71	2.7643	1.8208	1.3544
28.73	2.8460	1.8893	1.4229
29.76	2.9260	1.9581	1.4917
30.78	2.9778	2.0267	1.5603
31.81	3.0454	2.0953	1.6289
32.84	3.1125	2.1640	1.6976
33.86	3.1689	2.2328	1.7664
34.89	3.2291	2.3015	1.8351
35.92	3.2796	2.3701	1.9037
36.94	3.3264	2.4388	1.9724
37.97	3.3623	2.5075	2.0411
38.99	3.4034	2.5761	2.1097
40.02	3.4485	2.6449	2.1785
41.05	3.4899	2.7137	2.2473
42.07	3.5251	2.7822	2.3158
43.10	3.5602	2.8508	2.3844
44.12	3.5357	2.9196	2.4532
45.15	3.5723	2.9882	2.5218
46.18	3.5714	3.0570	2.5906
47.20	3.5912	3.1256	2.6592
48.23	3.6114	3.1942	2.7278
49.26	3.6463	3.2630	2.7965
50.28	3.6681	3.3316	2.8652
51.31	3.6997	3.4002	2.9338
52.33	3.7248	3.4691	3.0027
53.36	3.7535	3.5376	3.0712
54.39	3.7822	3.6064	3.1400
55.41	3.8084	3.6751	3.2087
56.44	3.8255	3.7438	3.2774
57.46	3.8485	3.8124	3.3460
58.49	3.8709	3.8811	3.4147
59.52	3.8928	3.9497	3.4833
60.54	3.9154	4.0184	3.5519
61.57	3.9321	4.0871	3.6207
62.60	3.9510	4.1557	3.6893
63.62	3.9719	4.2244	3.7580
64.65	3.9930	4.2931	3.8267
65.67	4.0121	4.3619	3.8955
66.70	4.0132	4.4306	3.9641
67.73	4.0096	4.4991	4.0327
68.75	4.0286	4.5679	4.1015
69.78	4.0448	4.6366	4.1702
70.80	4.0565	4.7053	4.2389
71.83	4.0756	4.7738	4.3074
72.86	4.0941	4.8427	4.3763
73.88	4.1117	4.9112	4.4448
74.91	4.1270	4.9798	4.5134
75.94	4.1462	5.0485	4.5821
76.96	4.1578	5.1173	4.6509
77.99	4.1676	5.1859	4.7195
79.01	4.1331	5.2546	4.7882
80.04	4.1439	5.3234	4.8570
81.07	4.1669	5.3921	4.9257
82.09	4.1813	5.4606	4.9942
83.12	4.1901	5.5294	5.0629
84.14	4.2065	5.5980	5.1316
85.17	4.2228	5.6667	5.2003
86.20	4.2392	5.7353	5.2689
87.22	4.2537	5.8039	5.3375
88.25	4.2661	5.8728	5.4064
89.28	4.2819	5.9414	5.4750
90.30	4.2988	6.0101	5.5437
91.33	4.3164	6.0787	5.6123
92.35	4.3296	6.1476	5.6812
93.38	4.3461	6.2160	5.7496
94.41	4.3638	6.2849	5.8184
95.43	4.3807	6.3535	5.8871
96.46	4.3974	6.4221	5.9557
97.48	4.4142	6.4908	6.0244
98.51	4.4338	6.5595	6.0931
99.54	4.4503	6.6281	6.1617
100.6	4.4669	6.6968	6.2304
101.6	4.4845	6.7655	6.2991
102.6	4.5017	6.8343	6.3679
103.6	4.5208	6.9029	6.4365
104.7	4.5398	6.9717	6.5053
105.7	4.5527	7.0403	6.5739
106.7	4.5690	7.1089	6.6425
107.7	4.5846	7.1776	6.7112
108.8	4.5998	7.2463	6.7799
109.8	4.6186	7.3151	6.8487
110.8	4.6381	7.3838	6.9174
111.9	4.6565	7.4524	6.9860
112.9	4.6761	7.5210	7.0545
113.9	4.6958	7.5899	7.1234
114.9	4.7202	7.6585	7.1921
116.0	4.7449	7.7270	7.2606
117.0	4.7705	7.7958	7.3294
118.0	4.7962	7.8643	7.3979
119.0	4.8220	7.9331	7.4667
120.1	4.8486	8.0018	7.5354
121.1	4.8727	8.0705	7.6041
122.1	4.8979	8.1391	7.6727
123.1	4.9254	8.2077	7.7413
124.2	4.9494	8.2766	7.8102
125.2	4.9729	8.3451	7.8787
126.2	4.9960	8.4139	7.9475
127.2	5.0197	8.4826	8.0162
128.3	5.0440	8.5512	8.0848
129.3	5.0685	8.6199	8.1535
130.3	5.0983	8.6886	8.2222
131.3	5.1192	8.7573	8.2909
132.4	5.1430	8.8259	8.3595
133.4	5.1676	8.8946	8.4282
134.4	5.1872	8.9632	8.4968
135.5	5.2051	9.0319	8.5655
136.5	5.2170	9.1006	8.6341
137.5	5.2350	9.1693	8.7029
138.5	5.2488	9.2380	8.7716
139.6	5.2734	9.3068	8.8404
140.6	5.3009	9.3754	8.9090
141.6	5.3260	9.4441	8.9777
142.6	5.3524	9.5128	9.0463
143.7	5.3811	9.5814	9.1150
144.7	5.4097	9.6500	9.1836
145.7	5.4392	9.7187	9.2523
146.7	5.4659	9.7875	9.3210
147.8	5.4927	9.8561	9.3897
148.8	5.5165	9.9248	9.4584
149.8	5.5388	9.9934	9.5270
150.8	5.5617	10.062	9.5957
151.9	5.5814	10.131	9.6646
152.9	5.6046	10.199	9.7330
153.9	5.6247	10.268	9.8018
154.9	5.6479	10.337	9.8704
156.0	5.6666	10.406	9.9392
157.0	5.6837	10.474	10.008
158.0	5.7062	10.543	10.077
159.1	5.7263	10.612	10.145
160.1	5.7463	10.680	10.214
161.1	5.7658	10.749	10.282
162.1	5.7865	10.818	10.351
163.2	5.8148	10.886	10.420
164.2	5.8413	10.955	10.489
165.2	5.8685	11.024	10.557
166.2	5.8977	11.092	10.626
167.3	5.9199	11.161	10.695
168.3	5.9425	11.230	10.763
169.3	5.9654	11.298	10.832
170.3	5.9934	11.367	10.901
171.4	6.0256	11.436	10.969
172.4	6.0625	11.504	11.038
173.4	6.0987	11.573	11.107
174.4	6.1330	11.642	11.175
175.5	6.1667	11.711	11.244
176.5	6.2013	11.779	11.313
177.5	6.2296	11.848	11.381
178.6	6.2634	11.916	11.450
179.6	6.2966	11.985	11.519
180.6	6.3293	12.054	11.588
181.6	6.3645	12.122	11.656
182.7	6.3938	12.191	11.725
183.7	6.4228	12.260	11.793
184.7	6.4421	12.328	11.862
185.7	6.4601	12.397	11.931
186.8	6.4877	12.466	11.999
187.8	6.5121	12.535	12.068
188.8	6.5347	12.603	12.137
189.8	6.5576	12.672	12.206
190.9	6.5806	12.741	12.274
191.9	6.6054	12.809	12.343
192.9	6.6079	12.878	12.412
193.9	6.6127	12.947	12.480
195.0	6.6207	13.015	12.549
196.0	6.6354	13.084	12.617
197.0	6.6536	13.153	12.686
198.0	6.6747	13.221	12.755
199.1	6.7022	13.290	12.824
200.1	6.7284	13.359	12.892
201.1	6.7568	13.427	12.961
202.2	6.7835	13.496	13.030
203.2	6.8141	13.565	13.098
204.2	-0.076294