File: Fm2_9.txt
Time (s)	Load (N)	Extension (mm)	Deflection from Preload (mm)
0.0000
0.3312	0.00088002	0.000027444	-0.76400
0.6624	0.0017626	0.0088274	-0.75520
0.9936	0.0070745	0.031212	-0.73281
1.325	0.015415	0.053315	-0.71071
1.656	0.023756	0.075634	-0.68839
1.987	0.032097	0.097599	-0.66642
2.318	0.044506	0.11997	-0.64405
2.649	0.054300	0.14196	-0.62206
2.981	0.064095	0.16413	-0.59989
3.312	0.073889	0.18642	-0.57760
3.643	0.084291	0.20842	-0.55560
3.974	0.095728	0.23073	-0.53330
4.305	0.10717	0.25282	-0.51120
4.637	0.11860	0.27498	-0.48905
4.968	0.13082	0.29708	-0.46694
5.299	0.14360	0.31944	-0.44458
5.630	0.15638	0.34154	-0.42248
5.961	0.17031	0.36361	-0.40042
6.293	0.18484	0.38580	-0.37822
6.624	0.19936	0.40800	-0.35603
6.955	0.21433	0.43024	-0.33378
7.286	0.23079	0.45233	-0.31169
7.617	0.24724	0.47457	-0.28946
7.948	0.26369	0.49666	-0.26736
8.280	0.28003	0.51880	-0.24523
8.611	0.29645	0.54093	-0.22309
8.942	0.31419	0.56307	-0.20096
9.273	0.33193	0.58537	-0.17865
9.604	0.35465	0.60752	-0.15651
9.936	0.37397	0.62971	-0.13431
10.27	0.39329	0.65180	-0.11222
10.60	0.41261	0.67394	-0.090084
10.93	0.43376	0.69610	-0.067921
11.26	0.45532	0.71831	-0.045715
11.59	0.47689	0.74059	-0.023432
11.92	0.49861	0.76263	-0.0013932
12.25	0.52065	0.78475	0.020730
12.59	0.54681	0.80693	0.042908
12.92	0.56952	0.82903	0.065010
13.25	0.59224	0.85132	0.087300
13.58	0.61525	0.87355	0.10953
13.91	0.63862	0.89558	0.13156
14.24	0.66215	0.91793	0.15391
14.57	0.68567	0.93991	0.17589
14.90	0.70896	0.96216	0.19814
15.23	0.73203	0.98432	0.22030
15.57	0.75304	1.0064	0.24237
15.90	0.75857	1.0286	0.26462
16.23	0.77514	1.0507	0.28673
16.56	0.80005	1.0729	0.30891
16.89	0.82180	1.0953	0.33123
17.22	0.84825	1.1173	0.35327
17.55	0.87342	1.1394	0.37539
17.88	0.89750	1.1616	0.39761
18.22	0.92157	1.1837	0.41972
18.55	0.94381	1.2059	0.44186
18.88	0.96743	1.2282	0.46415
19.21	0.98999	1.2503	0.48624
19.54	1.0082	1.2726	0.50854
19.87	1.0305	1.2947	0.53073
20.20	1.0529	1.3169	0.55288
20.53	1.0752	1.3389	0.57492
20.86	1.0976	1.3611	0.59703
21.20	1.1195	1.3833	0.61932
21.53	1.1413	1.4055	0.64144
21.86	1.1632	1.4276	0.66355
22.19	1.1847	1.4499	0.68585
22.52	1.2069	1.4720	0.70797
22.85	1.2291	1.4941	0.73008
23.18	1.2513	1.5163	0.75230
23.51	1.2739	1.5385	0.77444
23.85	1.2969	1.5607	0.79669
24.18	1.3174	1.5828	0.81879
24.51	1.3365	1.6049	0.84091
24.84	1.3543	1.6272	0.86317
25.17	1.3725	1.6493	0.88529
25.50	1.3902	1.6715	0.90744
25.83	1.4091	1.6936	0.92958
26.16	1.4309	1.7157	0.95171
26.49	1.4508	1.7380	0.97397
26.83	1.4712	1.7601	0.99606
27.16	1.4916	1.7822	1.0182
27.49	1.4900	1.8044	1.0403
27.82	1.4978	1.8265	1.0625
28.15	1.5150	1.8488	1.0848
28.48	1.5362	1.8711	1.1070
28.81	1.5574	1.8931	1.1290
29.14	1.5784	1.9154	1.1513
29.48	1.5985	1.9374	1.1733
29.81	1.6181	1.9595	1.1955
30.14	1.6369	1.9817	1.2177
30.47	1.6530	2.0040	1.2399
30.80	1.6688	2.0262	1.2622
31.13	1.6843	2.0483	1.2842
31.46	1.6994	2.0704	1.3064
31.79	1.7173	2.0927	1.3286
32.13	1.7306	2.1148	1.3508
32.46	1.7442	2.1371	1.3731
32.79	1.7604	2.1591	1.3951
33.12	1.7766	2.1813	1.4173
33.45	1.7913	2.2035	1.4395
33.78	1.8060	2.2256	1.4616
34.11	1.8206	2.2477	1.4837
34.44	1.8354	2.2699	1.5059
34.77	1.8539	2.2921	1.5280
35.11	1.8687	2.3142	1.5501
35.44	1.8834	2.3363	1.5723
35.77	1.8970	2.3585	1.5945
36.10	1.9095	2.3808	1.6167
36.43	1.9219	2.4030	1.6389
36.76	1.9338	2.4252	1.6612
37.09	1.9455	2.4472	1.6832
37.42	1.9516	2.4694	1.7054
37.76	1.9595	2.4917	1.7277
38.09	1.9679	2.5137	1.7497
38.42	1.9773	2.5360	1.7720
38.75	1.9800	2.5581	1.7941
39.08	1.9902	2.5803	1.8162
39.41	2.0005	2.6023	1.8383
39.74	2.0113	2.6246	1.8606
40.07	2.0222	2.6468	1.8828
40.40	2.0322	2.6689	1.9049
40.74	2.0423	2.6910	1.9270
41.07	2.0555	2.7133	1.9493
41.40	2.0670	2.7353	1.9713
41.73	2.0785	2.7577	1.9936
42.06	2.0900	2.7799	2.0158
42.39	2.1022	2.8020	2.0380
42.72	2.1144	2.8240	2.0600
43.05	2.1245	2.8462	2.0821
43.39	2.1338	2.8683	2.1043
43.72	2.1428	2.8905	2.1265
44.05	2.1507	2.9128	2.1488
44.38	2.1543	2.9350	2.1709
44.71	2.1324	2.9572	2.1932
45.04	2.1189	2.9793	2.2153
45.37	2.1170	3.0014	2.2374
45.70	2.1156	3.0235	2.2595
46.04	2.1231	3.0457	2.2817
46.37	2.1311	3.0679	2.3039
46.70	2.1412	3.0901	2.3261
47.03	2.1549	3.1124	2.3484
47.36	2.1675	3.1344	2.3703
47.69	2.1779	3.1566	2.3925
48.02	2.1874	3.1788	2.4148
48.35	2.1962	3.2010	2.4369
48.68	2.2050	3.2231	2.4591
49.02	2.2138	3.2452	2.4811
49.35	2.2223	3.2673	2.5033
49.68	2.2304	3.2896	2.5256
50.01	2.2385	3.3118	2.5478
50.34	2.2466	3.3339	2.5699
50.67	2.2547	3.3560	2.5920
51.00	2.2621	3.3782	2.6141
51.33	2.2678	3.4003	2.6363
51.67	2.2745	3.4226	2.6586
52.00	2.2815	3.4447	2.6807
52.33	2.2906	3.4668	2.7028
52.66	2.2940	3.4891	2.7251
52.99	2.2979	3.5112	2.7472
53.32	2.3019	3.5334	2.7694
53.65	2.3044	3.5555	2.7915
53.98	2.3089	3.5776	2.8136
54.31	2.3141	3.5997	2.8357
54.65	2.3193	3.6221	2.8581
54.98	2.3256	3.6444	2.8803
55.31	2.3327	3.6664	2.9023
55.64	2.3395	3.6886	2.9246
55.97	2.3459	3.7108	2.9468
56.30	2.3524	3.7329	2.9689
56.63	2.3585	3.7551	2.9910
56.96	2.3651	3.7771	3.0131
57.30	2.3723	3.7994	3.0354
57.63	2.3795	3.8216	3.0576
57.96	2.3867	3.8437	3.0797
58.29	2.3940	3.8658	3.1018
58.62	2.4011	3.8880	3.1240
58.95	2.4044	3.9102	3.1462
59.28	2.4077	3.9324	3.1684
59.61	2.4110	3.9545	3.1905
59.94	2.4151	3.9768	3.2128
60.28	2.4194	3.9989	3.2349
60.61	2.4234	4.0210	3.2570
60.94	2.4273	4.0432	3.2792
61.27	2.4313	4.0653	3.3013
61.60	2.4352	4.0874	3.3234
61.93	2.4392	4.1098	3.3458
62.26	2.4431	4.1320	3.3680
62.59	2.4469	4.1540	3.3900
62.93	2.4491	4.1762	3.4122
63.26	2.4492	4.1983	3.4343
63.59	2.4514	4.2204	3.4564
63.92	2.4542	4.2427	3.4787
64.25	2.4581	4.2649	3.5009
64.58	2.4619	4.2870	3.5230
64.91	2.4671	4.3091	3.5451
65.24	2.4731	4.3314	3.5673
65.58	2.4791	4.3535	3.5895
65.91		4.3757	3.6116